Thermodynamic properties as a function of pressure and temperature
P (MPa)  T (C)   h (MJ/kg)     rho (kg/m^3)   mu (Ns/m^2)
  1.000   20.0   0.847624E-01   998.315      0.100228E-02
  1.000   40.0   0.168299       992.563      0.654870E-03
  1.000   60.0   0.251950       983.665      0.466690E-03
  1.000   80.0   0.335805       972.290      0.353985E-03
  1.000  100.0   0.419970       958.818      0.281312E-03
  1.000  120.0   0.504581       943.461      0.231732E-03
  1.000  140.0   0.589803       926.314      0.196354E-03
  1.000  160.0   0.675852       907.388      0.170154E-03
  5.000   20.0   0.885282E-01   1000.48      0.100145E-02
  5.000   40.0   0.171827       994.554      0.654898E-03
  5.000   60.0   0.255259       985.601      0.467302E-03
  5.000   80.0   0.338911       974.250      0.354876E-03
  5.000  100.0   0.422888       960.860      0.282311E-03
  5.000  120.0   0.507321       945.630      0.232751E-03
  5.000  140.0   0.592371       928.652      0.197353E-03
  5.000  160.0   0.678244       909.935      0.171116E-03
  5.000  180.0   0.765206       889.416      0.151037E-03
  5.000  200.0   0.853617       866.953      0.135210E-03
  5.000  220.0   0.943977       842.291      0.122364E-03
  5.000  240.0    1.03704       814.999      0.111587E-03
  5.000  260.0    1.13401       784.296      0.102159E-03
 10.000   20.0   0.932141E-01   1003.02      0.100032E-02
 10.000   40.0   0.176240       996.911      0.655090E-03
 10.000   60.0   0.259416       987.910      0.468201E-03
 10.000   80.0   0.342827       976.599      0.356082E-03
 10.000  100.0   0.426576       963.315      0.283622E-03
 10.000  120.0   0.510786       948.245      0.234070E-03
 10.000  140.0   0.595610       931.476      0.198636E-03
 10.000  160.0   0.681240       913.021      0.172348E-03
 10.000  180.0   0.767920       892.821      0.152219E-03
 10.000  200.0   0.855971       870.752      0.136357E-03
 10.000  220.0   0.945830       846.594      0.123502E-03
 10.000  240.0    1.03812       819.989      0.112765E-03
 10.000  260.0    1.13377       790.324      0.103464E-03
 10.000  280.0    1.23438       756.462      0.949955E-04
 10.000  300.0    1.34309       715.944      0.866826E-04
 15.000   20.0   0.978768E-01   1005.40      0.999121E-03
 15.000   40.0   0.180650       999.151      0.655425E-03
 15.000   60.0   0.263586       990.117      0.469218E-03
 15.000   80.0   0.346769       978.853      0.357367E-03
 15.000  100.0   0.430296       965.676      0.284984E-03
 15.000  120.0   0.514284       950.766      0.235423E-03
 15.000  140.0   0.598876       934.205      0.199944E-03
 15.000  160.0   0.684251       916.007      0.173601E-03
 15.000  180.0   0.770632       896.123      0.153420E-03
 15.000  200.0   0.858307       874.442      0.137520E-03
 15.000  220.0   0.947659       850.774      0.124651E-03
 15.000  240.0    1.03922       824.816      0.113937E-03
 15.000  260.0    1.13374       796.079      0.104724E-03
 15.000  280.0    1.23244       763.712      0.964616E-04
 15.000  300.0    1.33743       726.062      0.885972E-04
 15.000  320.0    1.45326       679.310      0.803873E-04
 15.000  340.0    1.59371       611.711      0.704156E-04
 20.000   20.0   0.102517       1007.67      0.997899E-03
 20.000   40.0   0.185053       1001.30      0.655882E-03
 20.000   60.0   0.267763       992.241      0.470328E-03
 20.000   80.0   0.350728       981.027      0.358709E-03
 20.000  100.0   0.434038       967.958      0.286380E-03
 20.000  120.0   0.517806       953.204      0.236798E-03
 20.000  140.0   0.602166       936.847      0.201268E-03
 20.000  160.0   0.687282       918.902      0.174867E-03
 20.000  180.0   0.773359       899.327      0.154633E-03
 20.000  200.0   0.860656       878.024      0.138693E-03
 20.000  220.0   0.949512       854.828      0.125803E-03
 20.000  240.0    1.04038       829.483      0.115101E-03
 20.000  260.0    1.13392       801.587      0.105950E-03
 20.000  280.0    1.23107       770.483      0.978344E-04
 20.000  300.0    1.33343       734.995      0.902756E-04
 20.000  320.0    1.44402       692.714      0.827100E-04
 20.000  340.0    1.57010       637.609      0.742428E-04
 20.000  360.0    1.73890       548.247      0.628784E-04
 25.000   20.0   0.107134       1009.85      0.996679E-03
 25.000   40.0   0.189447       1003.36      0.656441E-03
 25.000   60.0   0.271943       994.295      0.471511E-03
 25.000   80.0   0.354696       983.134      0.360093E-03
 25.000  100.0   0.437797       970.171      0.287799E-03
 25.000  120.0   0.521349       955.570      0.238185E-03
 25.000  140.0   0.605477       939.411      0.202600E-03
 25.000  160.0   0.690335       921.713      0.176138E-03
 25.000  180.0   0.776108       902.438      0.155850E-03
 25.000  200.0   0.863033       881.502      0.139868E-03
 25.000  220.0   0.951411       858.760      0.126956E-03
 25.000  240.0    1.04164       833.993      0.116258E-03
 25.000  260.0    1.13428       806.868      0.107149E-03
 25.000  280.0    1.23011       776.863      0.991406E-04
 25.000  300.0    1.33041       743.105      0.917997E-04
 25.000  320.0    1.43739       703.964      0.846675E-04
 25.000  340.0    1.55573       655.902      0.771137E-04
 25.000  360.0    1.69890       589.163      0.679719E-04
 30.000   20.0   0.111730       1011.94      0.995482E-03
 30.000   40.0   0.193831       1005.37      0.657090E-03
 30.000   60.0   0.276121       996.294      0.472752E-03
 30.000   80.0   0.358672       985.184      0.361508E-03
 30.000  100.0   0.441568       972.324      0.289232E-03
 30.000  120.0   0.524907       957.871      0.239578E-03
 30.000  140.0   0.608807       941.905      0.203933E-03
 30.000  160.0   0.693409       924.445      0.177410E-03
 30.000  180.0   0.778884       905.461      0.157068E-03
 30.000  200.0   0.865446       884.879      0.141043E-03
 30.000  220.0   0.953366       862.573      0.128106E-03
 30.000  240.0    1.04300       838.352      0.117405E-03
 30.000  260.0    1.13482       811.938      0.108326E-03
 30.000  280.0    1.22950       782.909      0.100397E-03
 30.000  300.0    1.32808       750.595      0.932166E-04
 30.000  320.0    1.43228       713.835      0.863911E-04
 30.000  340.0    1.54545       670.365      0.794394E-04
 30.000  360.0    1.67584       614.919      0.715954E-04
 35.000   20.0   0.116305       1013.98      0.994328E-03
 35.000   40.0   0.198204       1007.33      0.657816E-03
 35.000   60.0   0.280296       998.245      0.474039E-03
 35.000   80.0   0.362651       987.187      0.362943E-03
 35.000  100.0   0.445348       974.425      0.290671E-03
 35.000  120.0   0.528480       960.114      0.240970E-03
 35.000  140.0   0.612155       944.333      0.205263E-03
 35.000  160.0   0.696506       927.103      0.178678E-03
 35.000  180.0   0.781689       908.401      0.158282E-03
 35.000  200.0   0.867900       888.160      0.142215E-03
 35.000  220.0   0.955382       866.270      0.129250E-03
 35.000  240.0    1.04445       842.567      0.118542E-03
 35.000  260.0    1.13552       816.813      0.109484E-03
 35.000  280.0    1.22918       788.664      0.101615E-03
 35.000  300.0    1.32628       757.590      0.945553E-04
 35.000  320.0    1.42821       722.735      0.879554E-04
 35.000  340.0    1.53752       682.557      0.814243E-04
 35.000  360.0    1.65984       633.893      0.744129E-04
 40.000   20.0   0.120860       1015.98      0.993233E-03
 40.000   40.0   0.202565       1009.25      0.658613E-03
 40.000   60.0   0.284467       1000.16      0.475361E-03
 40.000   80.0   0.366632       989.148      0.364391E-03
 40.000  100.0   0.449135       976.480      0.292111E-03
 40.000  120.0   0.532063       962.306      0.242357E-03
 40.000  140.0   0.615520       946.702      0.206586E-03
 40.000  160.0   0.699625       929.694      0.179940E-03
 40.000  180.0   0.784525       911.261      0.159489E-03
 40.000  200.0   0.870397       891.348      0.143380E-03
 40.000  220.0   0.957462       869.856      0.130387E-03
 40.000  240.0    1.04600       846.643      0.119670E-03
 40.000  260.0    1.13638       821.506      0.110625E-03
 40.000  280.0    1.22911       794.157      0.102800E-03
 40.000  300.0    1.32491       764.173      0.958347E-04
 40.000  320.0    1.42494       730.900      0.894057E-04
 40.000  340.0    1.53117       693.242      0.831812E-04
 40.000  360.0    1.64774       649.155      0.767405E-04
 45.000   20.0   0.125395       1017.94      0.992214E-03
 45.000   40.0   0.206914       1011.14      0.659473E-03
 45.000   60.0   0.288633       1002.04      0.476712E-03
 45.000   80.0   0.370614       991.074      0.365844E-03
 45.000  100.0   0.452928       978.495      0.293545E-03
 45.000  120.0   0.535658       964.450      0.243734E-03
 45.000  140.0   0.618899       949.017      0.207898E-03
 45.000  160.0   0.702765       932.221      0.181191E-03
 45.000  180.0   0.787390       914.048      0.160688E-03
 45.000  200.0   0.872936       894.448      0.144537E-03
 45.000  220.0   0.959604       873.336      0.131516E-03
 45.000  240.0    1.04764       850.588      0.120786E-03
 45.000  260.0    1.13739       826.028      0.111749E-03
 45.000  280.0    1.22927       799.414      0.103960E-03
 45.000  300.0    1.32392       770.402      0.970675E-04
 45.000  320.0    1.42229       738.482      0.907710E-04
 45.000  340.0    1.52599       702.846      0.847777E-04
 45.000  360.0    1.63813       662.100      0.787473E-04
 50.000   20.0   0.129911       1019.87      0.991282E-03
 50.000   40.0   0.211251       1013.00      0.660392E-03
 50.000   60.0   0.292792       1003.90      0.478085E-03
 50.000   80.0   0.374594       992.971      0.367298E-03
 50.000  100.0   0.456725       980.474      0.294970E-03
 50.000  120.0   0.539261       966.552      0.245098E-03
 50.000  140.0   0.622294       951.281      0.209197E-03
 50.000  160.0   0.705927       934.688      0.182429E-03
 50.000  180.0   0.790286       916.764      0.161875E-03
 50.000  200.0   0.875519       897.465      0.145684E-03
 50.000  220.0   0.961808       876.716      0.132636E-03
 50.000  240.0    1.04938       854.408      0.121892E-03
 50.000  260.0    1.13853       830.390      0.112859E-03
 50.000  280.0    1.22964       804.456      0.105097E-03
 50.000  300.0    1.32325       776.322      0.982625E-04
 50.000  320.0    1.42017       745.582      0.920709E-04
 50.000  340.0    1.52171       711.626      0.862566E-04
 50.000  360.0    1.63031       673.463      0.805325E-04
 55.000   20.0   0.134408       1021.80      0.990452E-03
 55.000   40.0   0.215575       1014.85      0.661368E-03
 55.000   60.0   0.296945       1005.73      0.479475E-03
 55.000   80.0   0.378573       994.843      0.368748E-03
 55.000  100.0   0.460525       982.423      0.296381E-03
 55.000  120.0   0.542873       968.617      0.246446E-03
 55.000  140.0   0.625702       953.499      0.210480E-03
 55.000  160.0   0.709110       937.100      0.183654E-03
 55.000  180.0   0.793211       919.413      0.163050E-03
 55.000  200.0   0.878143       900.402      0.146821E-03
 55.000  220.0   0.964072       879.999      0.133745E-03
 55.000  240.0    1.05120       858.109      0.122987E-03
 55.000  260.0    1.13980       834.601      0.113955E-03
 55.000  280.0    1.23019       809.298      0.106213E-03
 55.000  300.0    1.32287       781.965      0.994262E-04
 55.000  320.0    1.41850       752.273      0.933191E-04
 55.000  340.0    1.51818       719.749      0.876463E-04
 55.000  360.0    1.62385       683.670      0.821577E-04
 60.000   20.0   0.138888       1023.71      0.989735E-03
 60.000   40.0   0.219888       1016.69      0.662397E-03
 60.000   60.0   0.301090       1007.56      0.480877E-03
 60.000   80.0   0.382550       996.695      0.370190E-03
 60.000  100.0   0.464328       984.346      0.297776E-03
 60.000  120.0   0.546493       970.647      0.247776E-03
 60.000  140.0   0.629124       955.675      0.211745E-03
 60.000  160.0   0.712313       939.460      0.184862E-03
 60.000  180.0   0.796165       922.000      0.164211E-03
 60.000  200.0   0.880808       903.263      0.147944E-03
 60.000  220.0   0.966394       883.191      0.134842E-03
 60.000  240.0    1.05311       861.698      0.124070E-03
 60.000  260.0    1.14118       838.670      0.115038E-03
 60.000  280.0    1.23092       813.957      0.107312E-03
 60.000  300.0    1.32274       787.359      0.100563E-03
 60.000  320.0    1.41722       758.607      0.945252E-04
 60.000  340.0    1.51528       727.331      0.889667E-04
 60.000  360.0    1.61847       692.986      0.836635E-04
 65.000   20.0   0.143350       1025.62      0.989144E-03
 65.000   40.0   0.224188       1018.53      0.663479E-03
 65.000   60.0   0.305229       1009.37      0.482287E-03
 65.000   80.0   0.386525       998.531      0.371620E-03
 65.000  100.0   0.468134       986.245      0.299152E-03
 65.000  120.0   0.550120       972.646      0.249083E-03
 65.000  140.0   0.632559       957.812      0.212989E-03
 65.000  160.0   0.715535       941.772      0.186051E-03
 65.000  180.0   0.799148       924.529      0.165356E-03
 65.000  200.0   0.883514       906.053      0.149054E-03
 65.000  220.0   0.968772       886.295      0.135927E-03
 65.000  240.0    1.05509       865.180      0.125141E-03
 65.000  260.0    1.14268       842.607      0.116107E-03
 65.000  280.0    1.23182       818.445      0.108395E-03
 65.000  300.0    1.32285       792.526      0.101677E-03
 65.000  320.0    1.41629       764.628      0.956964E-04
 65.000  340.0    1.51291       734.454      0.902316E-04
 65.000  360.0    1.61397       701.589      0.850774E-04
 70.000   20.0   0.147796       1027.54      0.988692E-03
 70.000   40.0   0.228477       1020.36      0.664614E-03
 70.000   60.0   0.309361       1011.18      0.483703E-03
 70.000   80.0   0.390497       1000.36      0.373035E-03
 70.000  100.0   0.471941       988.124      0.300505E-03
 70.000  120.0   0.553754       974.618      0.250368E-03
 70.000  140.0   0.636005       959.912      0.214211E-03
 70.000  160.0   0.718775       944.039      0.187222E-03
 70.000  180.0   0.802157       927.001      0.166484E-03
 70.000  200.0   0.886257       908.776      0.150149E-03
 70.000  220.0   0.971204       889.317      0.136999E-03
 70.000  240.0    1.05715       868.561      0.126200E-03
 70.000  260.0    1.14429       846.417      0.117163E-03
 70.000  280.0    1.23285       822.773      0.109462E-03
 70.000  300.0    1.32317       797.485      0.102771E-03
 70.000  320.0    1.41567       770.368      0.968383E-04
 70.000  340.0    1.51100       741.181      0.914513E-04
 70.000  360.0    1.61023       709.603      0.864190E-04
 75.000   20.0   0.152225       1029.46      0.988393E-03
 75.000   40.0   0.232754       1022.20      0.665802E-03
 75.000   60.0   0.313485       1012.98      0.485123E-03
 75.000   80.0   0.394466       1002.17      0.374432E-03
 75.000  100.0   0.475750       989.988      0.301832E-03
 75.000  120.0   0.557393       976.566      0.251626E-03
 75.000  140.0   0.639463       961.981      0.215410E-03
 75.000  160.0   0.722034       946.264      0.188370E-03
 75.000  180.0   0.805193       929.422      0.167593E-03
 75.000  200.0   0.889038       911.434      0.151229E-03
 75.000  220.0   0.973688       892.261      0.138057E-03
 75.000  240.0    1.05928       871.845      0.127246E-03
 75.000  260.0    1.14599       850.108      0.118207E-03
 75.000  280.0    1.23403       826.952      0.110514E-03
 75.000  300.0    1.32368       802.252      0.103847E-03
 75.000  320.0    1.41533       775.853      0.979548E-04
 75.000  340.0    1.50952       747.560      0.926335E-04
 75.000  360.0    1.60712       717.119      0.877026E-04
 80.000   20.0   0.156639       1031.41      0.988261E-03
 80.000   40.0   0.237019       1024.06      0.667046E-03
 80.000   60.0   0.317602       1014.79      0.486545E-03
 80.000   80.0   0.398432       1003.98      0.375809E-03
 80.000  100.0   0.479560       991.838      0.303132E-03
 80.000  120.0   0.561039       978.493      0.252855E-03
 80.000  140.0   0.642933       964.019      0.216582E-03
 80.000  160.0   0.725311       948.450      0.189496E-03
 80.000  180.0   0.808254       931.793      0.168683E-03
 80.000  200.0   0.891855       914.031      0.152291E-03
 80.000  220.0   0.976221       895.130      0.139101E-03
 80.000  240.0    1.06148       875.039      0.128279E-03
 80.000  260.0    1.14779       853.687      0.119238E-03
 80.000  280.0    1.23534       830.990      0.111553E-03
 80.000  300.0    1.32438       806.840      0.104905E-03
 80.000  320.0    1.41524       781.107      0.990491E-04
 80.000  340.0    1.50840       753.629      0.937842E-04
 80.000  360.0    1.60457       724.204      0.889386E-04
 85.000   20.0   0.161037       1033.38      0.988312E-03
 85.000   40.0   0.241274       1025.92      0.668348E-03
 85.000   60.0   0.321712       1016.61      0.487966E-03
 85.000   80.0   0.402396       1005.79      0.377162E-03
 85.000  100.0   0.483371       993.678      0.304401E-03
 85.000  120.0   0.564690       980.401      0.254054E-03
 85.000  140.0   0.646413       966.030      0.217726E-03
 85.000  160.0   0.728604       950.600      0.190598E-03
 85.000  180.0   0.811340       934.118      0.169752E-03
 85.000  200.0   0.894706       916.571      0.153336E-03
 85.000  220.0   0.978802       897.929      0.140129E-03
 85.000  240.0    1.06375       878.146      0.129298E-03
 85.000  260.0    1.14968       857.160      0.120256E-03
 85.000  280.0    1.23677       834.897      0.112578E-03
 85.000  300.0    1.32524       811.263      0.105949E-03
 85.000  320.0    1.41539       786.148      0.100124E-03
 85.000  340.0    1.50761       759.419      0.949077E-04
 85.000  360.0    1.60251       730.912      0.901352E-04
 90.000   20.0   0.165421       1035.39      0.988566E-03
 90.000   40.0   0.245518       1027.81      0.669712E-03
 90.000   60.0   0.325816       1018.43      0.489385E-03
 90.000   80.0   0.406356       1007.60      0.378489E-03
 90.000  100.0   0.487183       995.511      0.305638E-03
 90.000  120.0   0.568347       982.294      0.255220E-03
 90.000  140.0   0.649903       968.017      0.218840E-03
 90.000  160.0   0.731914       952.716      0.191673E-03
 90.000  180.0   0.814450       936.400      0.170799E-03
 90.000  200.0   0.897591       919.057      0.154362E-03
 90.000  220.0   0.981428       900.661      0.141142E-03
 90.000  240.0    1.06607       881.170      0.130303E-03
 90.000  260.0    1.15165       860.532      0.121261E-03
 90.000  280.0    1.23831       838.679      0.113590E-03
 90.000  300.0    1.32626       815.531      0.106978E-03
 90.000  320.0    1.41574       790.993      0.101181E-03
 90.000  340.0    1.50711       764.955      0.960078E-04
 90.000  360.0    1.60089       737.285      0.912984E-04
 95.000   20.0   0.169791       1037.43      0.989041E-03
 95.000   40.0   0.249751       1029.72      0.671142E-03
 95.000   60.0   0.329912       1020.28      0.490802E-03
 95.000   80.0   0.410312       1009.41      0.379787E-03
 95.000  100.0   0.490995       997.339      0.306838E-03
 95.000  120.0   0.572008       984.173      0.256351E-03
 95.000  140.0   0.653404       969.982      0.219922E-03
 95.000  160.0   0.735240       954.802      0.192721E-03
 95.000  180.0   0.817583       938.641      0.171822E-03
 95.000  200.0   0.900507       921.492      0.155369E-03
 95.000  220.0   0.984098       903.329      0.142137E-03
 95.000  240.0    1.06845       884.118      0.131294E-03
 95.000  260.0    1.15369       863.809      0.122252E-03
 95.000  280.0    1.23996       842.344      0.114590E-03
 95.000  300.0    1.32741       819.654      0.107993E-03
 95.000  320.0    1.41629       795.657      0.102222E-03
 95.000  340.0    1.50689       770.259      0.970872E-04
 95.000  360.0    1.59965       743.356      0.924332E-04
100.000   20.0   0.174146       1039.51      0.989762E-03
100.000   40.0   0.253974       1031.67      0.672644E-03
100.000   60.0   0.334002       1022.13      0.492216E-03
100.000   80.0   0.414266       1011.24      0.381054E-03
100.000  100.0   0.494809       999.166      0.307999E-03
100.000  120.0   0.575675       986.041      0.257444E-03
100.000  140.0   0.656914       971.928      0.220970E-03
100.000  160.0   0.738581       956.859      0.193740E-03
100.000  180.0   0.820738       940.845      0.172821E-03
100.000  200.0   0.903455       923.878      0.156354E-03
100.000  220.0   0.986810       905.938      0.143115E-03
100.000  240.0    1.07090       886.991      0.132269E-03
100.000  260.0    1.15582       866.995      0.123231E-03
100.000  280.0    1.24170       845.899      0.115577E-03
100.000  300.0    1.32871       823.640      0.108995E-03
100.000  320.0    1.41702       800.150      0.103248E-03
100.000  340.0    1.50692       775.351      0.981481E-04
100.000  360.0    1.59876       749.155      0.935435E-04
110.000   20.0   0.182819       1043.83      0.992056E-03
110.000   40.0   0.262391       1035.66      0.675892E-03
110.000   60.0   0.342162       1025.92      0.495030E-03
110.000   80.0   0.422165       1014.92      0.383484E-03
110.000  100.0   0.502438       1002.83      0.310193E-03
110.000  120.0   0.583022       989.757      0.259504E-03
110.000  140.0   0.663962       975.771      0.222954E-03
110.000  160.0   0.745307       960.898      0.195681E-03
110.000  180.0   0.827112       945.149      0.174738E-03
110.000  200.0   0.909437       928.517      0.158259E-03
110.000  220.0   0.992352       910.987      0.145016E-03
110.000  240.0    1.07593       892.531      0.134173E-03
110.000  260.0    1.16027       873.116      0.125146E-03
110.000  280.0    1.24547       852.700      0.117513E-03
110.000  300.0    1.33165       831.237      0.110963E-03
110.000  320.0    1.41897       808.674      0.105260E-03
110.000  340.0    1.50763       784.956      0.100222E-03
110.000  360.0    1.59789       760.026      0.957022E-04
